 Poloidal magnetic field
     8.70000        0.950944E-04    0.107764E-03
     8.70139        0.100616E-03    0.115781E-03
     8.70660        0.122023E-03    0.149618E-03
     8.71339        0.148571E-03    0.184372E-03
     8.71859        0.164904E-03    0.185824E-03
     8.71998        0.168334E-03    0.180481E-03
     8.72101        0.169388E-03    0.174315E-03
     8.72485        0.171669E-03    0.153005E-03
     8.72987        0.170666E-03    0.128776E-03
     8.73372        0.166822E-03    0.112163E-03
     8.73474        0.165348E-03    0.107935E-03
     8.73576        0.162932E-03    0.100916E-03
     8.73961        0.151891E-03    0.754382E-04
     8.74462        0.133308E-03    0.449326E-04
     8.74845        0.116335E-03    0.243043E-04
     8.74948        0.111469E-03    0.192858E-04
     8.75050        0.106213E-03    0.135465E-04
     8.75434        0.853753E-04   -0.636608E-05
     8.75934        0.563051E-04   -0.279342E-04
     8.76317        0.333010E-04   -0.405473E-04
     8.76419        0.271482E-04   -0.432747E-04
     8.76521        0.209681E-04   -0.458823E-04
     8.76904       -0.192741E-05   -0.532749E-04
     8.77404       -0.303234E-04   -0.571098E-04
     8.77787       -0.502087E-04   -0.554607E-04
     8.77889       -0.551484E-04   -0.543356E-04
     8.77991       -0.598376E-04   -0.528631E-04
     8.78373       -0.756813E-04   -0.448573E-04
     8.78872       -0.916196E-04   -0.288827E-04
     8.79254       -0.996378E-04   -0.127400E-04
     8.79356       -0.101098E-03   -0.790619E-05
     8.79458       -0.102117E-03   -0.279206E-05
     8.79840       -0.103129E-03    0.180528E-04
     8.80338       -0.976096E-04    0.484185E-04
     8.80719       -0.879579E-04    0.733792E-04
     8.80821       -0.845737E-04    0.801961E-04
     8.80923       -0.806930E-04    0.870645E-04
     8.81304       -0.630912E-04    0.112923E-03
     8.81801       -0.332575E-04    0.145983E-03
     8.82182       -0.544937E-05    0.169912E-03
     8.82284        0.264931E-05    0.175988E-03
     8.82385        0.111441E-04    0.181828E-03
     8.82766        0.452814E-04    0.202057E-03
     8.83263        0.944436E-04    0.223759E-03
     8.83643        0.134926E-03    0.236063E-03
     8.83744        0.146047E-03    0.238633E-03
     8.83846        0.157331E-03    0.240731E-03
     8.84226        0.200366E-03    0.245523E-03
     8.84722        0.257237E-03    0.244179E-03
     8.85102        0.300416E-03    0.236962E-03
     8.85203        0.311768E-03    0.234100E-03
     8.85304        0.322980E-03    0.230650E-03
     8.85684        0.363781E-03    0.214015E-03
     8.86179        0.413152E-03    0.183787E-03
     8.86558        0.447077E-03    0.154230E-03
     8.86659        0.455456E-03    0.145440E-03
     8.86760        0.463397E-03    0.136109E-03
     8.87139        0.490039E-03    0.978561E-04
     8.87634        0.516803E-03    0.410032E-04
     8.88013        0.530508E-03   -0.720200E-05
     8.88113        0.533111E-03   -0.206501E-04
     8.88214        0.535064E-03   -0.344190E-04
     8.88593        0.537984E-03   -0.877941E-04
     8.89087        0.531375E-03   -0.160411E-03
     8.89465        0.518155E-03   -0.217269E-03
     8.89565        0.513441E-03   -0.232485E-03
     8.89666        0.508024E-03   -0.247682E-03
     8.90044        0.483107E-03   -0.304174E-03
     8.90537        0.440328E-03   -0.375526E-03
     8.90915        0.400082E-03   -0.427231E-03
     8.91015        0.388329E-03   -0.440460E-03
     8.91116        0.375997E-03   -0.453300E-03
     8.91493        0.326102E-03   -0.498603E-03
     8.91986        0.253491E-03   -0.550071E-03
     8.92363        0.192986E-03   -0.582690E-03
     8.92463        0.176262E-03   -0.590297E-03
     8.92563        0.159237E-03   -0.597215E-03
     8.92940        0.936533E-04   -0.618433E-03
     8.93432        0.536520E-05   -0.634572E-03
     8.93808       -0.631731E-04   -0.637585E-03
     8.93909       -0.814297E-04   -0.636986E-03
     8.94009       -0.996163E-04   -0.635545E-03
     8.94385       -0.167071E-03   -0.624528E-03
     8.94876       -0.251958E-03   -0.597240E-03
     8.95252       -0.313374E-03   -0.566582E-03
     8.95352       -0.329077E-03   -0.557024E-03
     8.95452       -0.344329E-03   -0.546679E-03
     8.95828       -0.398300E-03   -0.502754E-03
     8.96318       -0.460110E-03   -0.434382E-03
     8.96693       -0.499933E-03   -0.374338E-03
     8.96793       -0.509349E-03   -0.357327E-03
     8.96893       -0.518026E-03   -0.339790E-03
     8.97268       -0.545528E-03   -0.270724E-03
     8.97758       -0.569153E-03   -0.174353E-03
     8.98133       -0.577452E-03   -0.970216E-04
     8.98232       -0.578202E-03   -0.760597E-04
     8.98332       -0.578092E-03   -0.549806E-04
     8.98707       -0.571953E-03    0.246242E-04
     8.99195       -0.550775E-03    0.128119E-03
     8.99570       -0.524678E-03    0.205643E-03
     8.99669       -0.516324E-03    0.225874E-03
     8.99769       -0.507187E-03    0.245761E-03
     9.00143       -0.467797E-03    0.317850E-03
     9.00631       -0.405313E-03    0.404577E-03
     9.01005       -0.349770E-03    0.464077E-03
     9.01104       -0.333956E-03    0.478773E-03
     9.01204       -0.317623E-03    0.492719E-03
     9.01577       -0.253070E-03    0.539900E-03
     9.02065       -0.162532E-03    0.588528E-03
     9.02438       -0.896062E-04    0.615065E-03
     9.02537       -0.698066E-04    0.620490E-03
     9.02637       -0.498855E-04    0.624926E-03
     9.03010        0.254398E-04    0.634963E-03
     9.03496        0.123569E-03    0.632506E-03
     9.03869        0.197214E-03    0.618671E-03
     9.03968        0.216450E-03    0.613249E-03
     9.04067        0.235369E-03    0.606842E-03
     9.04440        0.304054E-03    0.576351E-03
     9.04925        0.386964E-03    0.522226E-03
     9.05297        0.444128E-03    0.470537E-03
     9.05397        0.458298E-03    0.455372E-03
     9.05496        0.471781E-03    0.439476E-03
     9.05868        0.517684E-03    0.375147E-03
     9.06353        0.565776E-03    0.281691E-03
     9.06724        0.592835E-03    0.204201E-03
     9.06823        0.598541E-03    0.182862E-03
     9.06922        0.603342E-03    0.161239E-03
     9.07293        0.615314E-03    0.784204E-04
     9.07778        0.616649E-03   -0.317630E-04
     9.08149        0.606645E-03   -0.116070E-03
     9.08248        0.602371E-03   -0.138316E-03
     9.08346        0.597185E-03   -0.160310E-03
     9.08717        0.571721E-03   -0.240956E-03
     9.09201        0.525055E-03   -0.340024E-03
     9.09571        0.479649E-03   -0.409579E-03
     9.09670        0.466225E-03   -0.427001E-03
     9.09769        0.452105E-03   -0.443681E-03
     9.10139        0.394626E-03   -0.501179E-03
     9.10622        0.310342E-03   -0.563089E-03
     9.10992        0.239883E-03   -0.599411E-03
     9.11090        0.220397E-03   -0.607351E-03
     9.11189        0.200607E-03   -0.614237E-03
     9.11559        0.124471E-03   -0.633043E-03
     9.12041        0.223146E-04   -0.640785E-03
     9.12410       -0.565979E-04   -0.633638E-03
     9.12509       -0.775421E-04   -0.629807E-03
     9.12607       -0.983237E-04   -0.624878E-03
     9.12976       -0.175081E-03   -0.599184E-03
     9.13458       -0.270820E-03   -0.549435E-03
     9.13827       -0.339342E-03   -0.499602E-03
     9.13925       -0.356730E-03   -0.484701E-03
     9.14023       -0.373515E-03   -0.468942E-03
     9.14392       -0.432401E-03   -0.404302E-03
     9.14873       -0.498479E-03   -0.308548E-03
     9.15241       -0.539826E-03   -0.227939E-03
     9.15339       -0.549373E-03   -0.205580E-03
     9.15437       -0.558015E-03   -0.182835E-03
     9.15805       -0.584402E-03   -0.951965E-04
     9.16286       -0.604223E-03    0.225463E-04
     9.16653       -0.607883E-03    0.113436E-03
     9.16751       -0.607142E-03    0.137531E-03
     9.16849       -0.605415E-03    0.161419E-03
     9.17217       -0.592441E-03    0.249424E-03
     9.17696       -0.560693E-03    0.358490E-03
     9.18064       -0.525494E-03    0.435821E-03
     9.18162       -0.514589E-03    0.455308E-03
     9.18259       -0.502869E-03    0.474041E-03
     9.18627       -0.453584E-03    0.539144E-03
     9.19105       -0.377988E-03    0.610537E-03
     9.19472       -0.312597E-03    0.653624E-03
     9.19570       -0.294222E-03    0.663269E-03
     9.19668       -0.275416E-03    0.671805E-03
     9.20034       -0.202080E-03    0.696386E-03
     9.20512       -0.101537E-03    0.710522E-03
     9.20879       -0.223842E-04    0.707287E-03
     9.20976       -0.117228E-05    0.704337E-03
     9.21074        0.199784E-04    0.700200E-03
     9.21440        0.988075E-04    0.676865E-03
     9.21917        0.198664E-03    0.628683E-03
     9.22283        0.271232E-03    0.578881E-03
     9.22381        0.289802E-03    0.563815E-03
     9.22478        0.307812E-03    0.547795E-03
     9.22844        0.371605E-03    0.481565E-03
     9.23320        0.444572E-03    0.382338E-03
     9.23686        0.491377E-03    0.298067E-03
     9.23783        0.502376E-03    0.274595E-03
     9.23880        0.512445E-03    0.250663E-03
     9.24245        0.544124E-03    0.158108E-03
     9.24721        0.570503E-03    0.329509E-04
     9.25086        0.578782E-03   -0.642829E-04
     9.25183        0.579190E-03   -0.901493E-04
     9.25280        0.578552E-03   -0.115853E-03
     9.25645        0.569333E-03   -0.210942E-03
     9.26121        0.541573E-03   -0.329743E-03
     9.26485        0.508668E-03   -0.414790E-03
     9.26582        0.498250E-03   -0.436350E-03
     9.26679        0.486945E-03   -0.457164E-03
     9.27043        0.438776E-03   -0.530108E-03
     9.27518        0.363595E-03   -0.611625E-03
     9.27881        0.297775E-03   -0.662257E-03
     9.27978        0.279181E-03   -0.673859E-03
     9.28075        0.260106E-03   -0.684317E-03
     9.28439        0.185438E-03   -0.715899E-03
     9.28913        0.825270E-04   -0.738499E-03
     9.29276        0.122499E-05   -0.741146E-03
     9.29373       -0.205909E-04   -0.739657E-03
     9.29470       -0.423539E-04   -0.736918E-03
     9.29833       -0.123493E-03   -0.718454E-03
     9.30306       -0.226218E-03   -0.675650E-03
     9.30669       -0.300707E-03   -0.629193E-03
     9.30766       -0.319725E-03   -0.614895E-03
     9.30863       -0.338167E-03   -0.599577E-03
     9.31225       -0.403280E-03   -0.535562E-03
     9.31698       -0.477106E-03   -0.438198E-03
     9.32060       -0.523783E-03   -0.354592E-03
     9.32157       -0.534612E-03   -0.331184E-03
     9.32253       -0.544461E-03   -0.307261E-03
     9.32615       -0.574814E-03   -0.214360E-03
     9.33088       -0.598167E-03   -0.879141E-04
     9.33450       -0.603082E-03    0.108740E-04
     9.33546       -0.602428E-03    0.372273E-04
     9.33642       -0.600638E-03    0.634545E-04
     9.34004       -0.586538E-03    0.160736E-03
     9.34476       -0.551093E-03    0.282796E-03
     9.34837       -0.511344E-03    0.370519E-03
     9.34933       -0.498963E-03    0.392799E-03
     9.35029       -0.485606E-03    0.414334E-03
     9.35391       -0.429311E-03    0.489973E-03
     9.35862       -0.342629E-03    0.574805E-03
     9.36223       -0.267455E-03    0.627701E-03
     9.36319       -0.246303E-03    0.639845E-03
     9.36415       -0.224617E-03    0.650815E-03
     9.36776       -0.140049E-03    0.684083E-03
     9.37246       -0.241513E-04    0.708192E-03
     9.37606        0.669710E-04    0.711402E-03
     9.37702        0.913613E-04    0.709961E-03
     9.37798        0.115753E-03    0.707233E-03
     9.38159        0.206478E-03    0.688462E-03
     9.38628        0.320863E-03    0.644376E-03
     9.38988        0.403476E-03    0.596272E-03
     9.39084        0.424515E-03    0.581433E-03
     9.39180        0.445049E-03    0.565557E-03
     9.39540        0.517384E-03    0.499130E-03
     9.40009        0.598978E-03    0.397914E-03
     9.40369        0.650232E-03    0.310915E-03
     9.40464        0.662059E-03    0.286548E-03
     9.40560        0.672965E-03    0.261676E-03
     9.40919        0.706535E-03    0.165116E-03
     9.41388        0.732235E-03    0.338156E-04
     9.41747        0.737512E-03   -0.685865E-04
     9.41843        0.736735E-03   -0.958662E-04
     9.41938        0.734714E-03   -0.123007E-03
     9.42297        0.719116E-03   -0.223449E-03
     9.42765        0.680233E-03   -0.348800E-03
     9.43124        0.636800E-03   -0.438230E-03
     9.43219        0.623288E-03   -0.460820E-03
     9.43315        0.608590E-03   -0.482629E-03
     9.43673        0.546898E-03   -0.558706E-03
     9.44141        0.452410E-03   -0.642558E-03
     9.44499        0.370825E-03   -0.693405E-03
     9.44594        0.347917E-03   -0.704793E-03
     9.44690        0.324187E-03   -0.714936E-03
     9.45047        0.232046E-03   -0.744322E-03
     9.45514        0.106643E-03   -0.761465E-03
     9.45872        0.870407E-05   -0.757890E-03
     9.45967       -0.174138E-04   -0.754424E-03
     9.46063       -0.439981E-04   -0.749648E-03
     9.46420       -0.142474E-03   -0.722446E-03
     9.46886       -0.265668E-03   -0.665669E-03
     9.47244       -0.353871E-03   -0.606686E-03
     9.47339       -0.376208E-03   -0.588792E-03
     9.47434       -0.398280E-03   -0.569847E-03
     9.47791       -0.475821E-03   -0.491514E-03
     9.48257       -0.562745E-03   -0.374051E-03
     9.48614       -0.616870E-03   -0.274301E-03
     9.48709       -0.629269E-03   -0.246520E-03
     9.48804       -0.640642E-03   -0.218220E-03
     9.49160       -0.675433E-03   -0.108921E-03
     9.49626       -0.701440E-03    0.384206E-04
     9.49982       -0.705983E-03    0.152397E-03
     9.50077       -0.704866E-03    0.182620E-03
     9.50172       -0.702411E-03    0.212638E-03
     9.50528       -0.684558E-03    0.323257E-03
     9.50993       -0.641325E-03    0.460155E-03
     9.51349       -0.593600E-03    0.556897E-03
     9.51444       -0.578815E-03    0.581179E-03
     9.51538       -0.563043E-03    0.604493E-03
     9.51894       -0.496712E-03    0.685267E-03
     9.52358       -0.394927E-03    0.772847E-03
     9.52714       -0.307010E-03    0.824634E-03
     9.52809       -0.282333E-03    0.835975E-03
     9.52903       -0.258110E-03    0.845806E-03
     9.53259       -0.162674E-03    0.873046E-03
     9.53722       -0.297920E-04    0.885087E-03
     9.54077        0.760898E-04    0.875922E-03
     9.54172        0.104617E-03    0.870723E-03
     9.54267        0.130061E-03    0.863798E-03
     9.54622        0.225952E-03    0.827819E-03
     9.55085        0.349592E-03    0.758081E-03
     9.55439        0.440904E-03    0.688239E-03
     9.55534        0.464450E-03    0.667338E-03
     9.55628        0.485861E-03    0.645250E-03
     9.55983        0.560499E-03    0.554680E-03
     9.56445        0.642545E-03    0.420497E-03
     9.56800        0.692061E-03    0.307664E-03
     9.56894        0.703095E-03    0.276394E-03
     9.56989        0.712421E-03    0.244737E-03
     9.57343        0.738950E-03    0.122929E-03
     9.57805        0.752864E-03   -0.402182E-04
     9.58159        0.747257E-03   -0.165615E-03
     9.58253        0.743315E-03   -0.198741E-03
     9.58347        0.737442E-03   -0.231349E-03
     9.58701        0.706569E-03   -0.351070E-03
     9.59163        0.646105E-03   -0.498158E-03
     9.59516        0.585237E-03   -0.601229E-03
     9.59610        0.566985E-03   -0.626952E-03
     9.59705        0.546957E-03   -0.651473E-03
     9.60058        0.465038E-03   -0.735596E-03
     9.60519        0.344115E-03   -0.824663E-03
     9.60872        0.242750E-03   -0.875363E-03
     9.60966        0.214704E-03   -0.886079E-03
     9.61060        0.186142E-03   -0.895499E-03
     9.61413        0.755298E-04   -0.919607E-03
     9.61874       -0.742120E-04   -0.923886E-03
     9.62227       -0.190462E-03   -0.906108E-03
     9.62321       -0.221339E-03   -0.898237E-03
     9.62415       -0.249871E-03   -0.890150E-03
     9.62767       -0.356162E-03   -0.847597E-03
     9.63227       -0.490275E-03   -0.764253E-03
     9.63580       -0.587013E-03   -0.680401E-03
     9.63674       -0.611591E-03   -0.655271E-03
     9.63768       -0.632498E-03   -0.631167E-03
     9.64120       -0.705604E-03   -0.531599E-03
     9.64579       -0.786372E-03   -0.382577E-03
     9.64932       -0.835408E-03   -0.256313E-03
     9.65025       -0.846373E-03   -0.221200E-03
     9.65119       -0.853666E-03   -0.186990E-03
     9.65471       -0.872123E-03   -0.561324E-04
     9.65930       -0.874460E-03    0.117301E-03
     9.66282       -0.859257E-03    0.249178E-03
     9.66376       -0.852655E-03    0.283793E-03
     9.66469       -0.843120E-03    0.319481E-03
     9.66821       -0.797805E-03    0.447882E-03
     9.67279       -0.717049E-03    0.599284E-03
     9.67631       -0.639783E-03    0.700184E-03
     9.67724       -0.617066E-03    0.724506E-03
     9.67818       -0.592479E-03    0.749454E-03
     9.68169       -0.493850E-03    0.834074E-03
     9.68627       -0.352447E-03    0.921177E-03
     9.68978       -0.236799E-03    0.968459E-03
     9.69072       -0.205200E-03    0.977986E-03
     9.69166       -0.170176E-03    0.983657E-03
     9.69516       -0.394196E-04    0.995560E-03
     9.69974        0.126408E-03    0.988588E-03
     9.70325        0.246755E-03    0.966080E-03
     9.70418        0.277466E-03    0.957547E-03
     9.70512        0.313242E-03    0.942279E-03
     9.70862        0.439643E-03    0.877739E-03
     9.71320        0.582960E-03    0.777760E-03
     9.71670        0.673511E-03    0.690713E-03
     9.71763        0.694473E-03    0.666166E-03
     9.71857        0.720442E-03    0.634441E-03
     9.72207        0.806367E-03    0.509999E-03
     9.72664        0.889120E-03    0.337701E-03
     9.73014        0.928367E-03    0.200983E-03
     9.73107        0.935059E-03    0.164209E-03
     9.73200        0.941076E-03    0.127576E-03
     9.73550        0.953710E-03   -0.141581E-04
     9.74007        0.946352E-03   -0.205642E-03
     9.74356        0.922522E-03   -0.353959E-03
     9.74450        0.913489E-03   -0.393290E-03
     9.74543        0.899558E-03   -0.427026E-03
     9.74892        0.838110E-03   -0.551644E-03
     9.75348        0.737614E-03   -0.706172E-03
     9.75698        0.646700E-03   -0.815345E-03
     9.75791        0.620616E-03   -0.842689E-03
     9.75884        0.591731E-03   -0.867832E-03
     9.76233        0.476940E-03   -0.951228E-03
     9.76689        0.314777E-03   -0.103199E-02
     9.77038        0.183873E-03   -0.107074E-02
     9.77131        0.148355E-03   -0.107745E-02
     9.77224        0.111569E-03   -0.108351E-02
     9.77573       -0.281389E-04   -0.109251E-02
     9.78028       -0.210950E-03   -0.107141E-02
     9.78377       -0.348163E-03   -0.103026E-02
     9.78470       -0.383900E-03   -0.101562E-02
     9.78563       -0.417595E-03   -0.100039E-02
     9.78912       -0.540832E-03   -0.930706E-03
     9.79367       -0.690937E-03   -0.811790E-03
     9.79715       -0.795000E-03   -0.701177E-03
     9.79808       -0.820764E-03   -0.669059E-03
     9.79901       -0.842831E-03   -0.636046E-03
     9.80249       -0.916809E-03   -0.504685E-03
     9.80704       -0.990523E-03   -0.318693E-03
     9.81052       -0.102807E-02   -0.168204E-03
     9.81145       -0.103510E-02   -0.127317E-03
     9.81237       -0.103835E-02   -0.856135E-04
     9.81586       -0.103968E-02    0.714743E-04
     9.82040       -0.101547E-02    0.274071E-03
     9.82388       -0.977330E-03    0.423905E-03
     9.82480       -0.964296E-03    0.462591E-03
     9.82573       -0.945592E-03    0.501563E-03
     9.82921       -0.867805E-03    0.640886E-03
     9.83375       -0.750022E-03    0.802898E-03
     9.83723       -0.649275E-03    0.908929E-03
     9.83815       -0.621108E-03    0.934140E-03
     9.83908       -0.587272E-03    0.959077E-03
     9.84255       -0.454103E-03    0.104068E-02
     9.84709       -0.268777E-03    0.111676E-02
     9.85056       -0.121078E-03    0.115030E-02
     9.85149       -0.812665E-04    0.115539E-02
     9.85241       -0.412359E-04    0.115884E-02
     9.85589        0.109201E-03    0.115782E-02
     9.86042        0.302314E-03    0.112326E-02
     9.86389        0.444355E-03    0.107180E-02
     9.86482        0.480897E-03    0.105444E-02
     9.86574        0.517876E-03    0.103556E-02
     9.86921        0.650000E-03    0.952265E-03
     9.87374        0.803412E-03    0.816005E-03
     9.87721        0.903598E-03    0.692779E-03
     9.87814        0.927374E-03    0.657437E-03
     9.87906        0.949457E-03    0.620787E-03
     9.88253        0.102128E-02    0.475952E-03
     9.88705        0.108697E-02    0.273134E-03
     9.89052        0.111453E-02    0.110675E-03
     9.89144        0.111833E-02    0.667747E-04
     9.89237        0.111999E-02    0.231183E-04
     9.89583        0.111270E-02   -0.141463E-03
     9.90036        0.107131E-02   -0.354006E-03
     9.90382        0.101574E-02   -0.511390E-03
     9.90474        0.997473E-03   -0.552047E-03
     9.90567        0.977405E-03   -0.590486E-03
     9.90913        0.890564E-03   -0.728795E-03
     9.91365        0.751956E-03   -0.891776E-03
     9.91711        0.628730E-03   -0.100029E-02
     9.91804        0.593660E-03   -0.102641E-02
     9.91896        0.557302E-03   -0.104935E-02
     9.92242        0.414056E-03   -0.112305E-02
     9.92694        0.214448E-03   -0.118792E-02
     9.93040        0.552759E-04   -0.121236E-02
     9.93132        0.123700E-04   -0.121496E-02
     9.93224       -0.299851E-04   -0.121664E-02
     9.93570       -0.189110E-03   -0.120663E-02
     9.94022       -0.393278E-03   -0.115515E-02
     9.94367       -0.543399E-03   -0.108701E-02
     9.94460       -0.582009E-03   -0.106469E-02
     9.94552       -0.618517E-03   -0.104468E-02
     9.94897       -0.749008E-03   -0.953874E-03
     9.95349       -0.900606E-03   -0.800382E-03
     9.95694       -0.999673E-03   -0.658527E-03
     9.95786       -0.102319E-02   -0.617458E-03
     9.95878       -0.104334E-02   -0.578906E-03
     9.96224       -0.110725E-02   -0.426225E-03
     9.96675       -0.116129E-02   -0.211703E-03
     9.97020       -0.117911E-02   -0.393820E-04
     9.97112       -0.118023E-02    0.724799E-05
     9.97204       -0.117882E-02    0.531388E-04
     9.97550       -0.115927E-02    0.224683E-03
     9.98001       -0.110036E-02    0.442810E-03
     9.98346       -0.103056E-02    0.601678E-03
     9.98438       -0.100841E-02    0.642305E-03
     9.98530       -0.984772E-03    0.681323E-03
     9.98875       -0.884095E-03    0.820003E-03
     9.99325       -0.726741E-03    0.979257E-03
     9.99671       -0.588987E-03    0.108179E-02
     9.99763       -0.550063E-03    0.110587E-02
     9.99855       -0.510690E-03    0.112617E-02
     10.0020       -0.356658E-03    0.119005E-02
     10.0065       -0.144499E-03    0.124258E-02
     10.0099        0.228539E-04    0.125824E-02
     10.0109        0.676968E-04    0.125863E-02
     10.0118        0.112226E-03    0.125583E-02
     10.0152        0.277746E-03    0.123048E-02
     10.0197        0.485967E-03    0.116281E-02
     10.0232        0.635811E-03    0.108558E-02
     10.0241        0.673839E-03    0.106136E-02
     10.0250        0.710563E-03    0.103511E-02
     10.0285        0.839710E-03    0.924464E-03
     10.0330        0.984525E-03    0.753954E-03
     10.0364        0.107467E-02    0.606285E-03
     10.0373        0.109527E-02    0.564773E-03
     10.0383        0.111372E-02    0.522127E-03
     10.0417        0.116952E-02    0.356277E-03
     10.0462        0.120911E-02    0.130050E-03
     10.0496        0.121322E-02   -0.467752E-04
     10.0506        0.121031E-02   -0.939192E-04
     10.0515        0.120510E-02   -0.140940E-03
     10.0549        0.117114E-02   -0.315206E-03
     10.0594        0.109348E-02   -0.533221E-03
     10.0629        0.100976E-02   -0.689155E-03
     10.0638        0.984019E-03   -0.728576E-03
     10.0647        0.956451E-03   -0.766800E-03
     10.0681        0.841636E-03   -0.900507E-03
     10.0726        0.667636E-03   -0.104867E-02
     10.0761        0.518876E-03   -0.113934E-02
     10.0770        0.477320E-03   -0.115977E-02
     10.0779        0.435224E-03   -0.117826E-02
     10.0814        0.271985E-03   -0.123320E-02
     10.0858        0.504347E-04   -0.126936E-02
     10.0893       -0.121886E-03   -0.126915E-02
     10.0902       -0.167698E-03   -0.126485E-02
     10.0911       -0.212023E-03   -0.125782E-02
     10.0946       -0.376523E-03   -0.121711E-02
     10.0991       -0.582765E-03   -0.113095E-02
     10.1025       -0.730574E-03   -0.104113E-02
     10.1034       -0.767979E-03   -0.101384E-02
     10.1042       -0.798328E-03   -0.985953E-03
     10.1073       -0.905729E-03   -0.873528E-03
     10.1114       -0.102813E-02   -0.710326E-03
     10.1145       -0.110642E-02   -0.574941E-03
     10.1153       -0.112474E-02   -0.537603E-03
     10.1161       -0.113981E-02   -0.497526E-03
     10.1192       -0.118556E-02   -0.343667E-03
     10.1232       -0.121858E-02   -0.137606E-03
     10.1263       -0.122284E-02    0.213519E-04
     10.1271       -0.122077E-02    0.635063E-04
     10.1280       -0.121689E-02    0.106327E-03
     10.1311       -0.119035E-02    0.265288E-03
     10.1351       -0.112767E-02    0.465479E-03
     10.1382       -0.105902E-02    0.610391E-03
     10.1390       -0.103776E-02    0.647383E-03
     10.1398       -0.101505E-02    0.683642E-03
     10.1429       -0.920186E-03    0.812438E-03
     10.1469       -0.775281E-03    0.960649E-03
     10.1500       -0.650179E-03    0.105681E-02
     10.1509       -0.615005E-03    0.107958E-02
     10.1517       -0.578752E-03    0.110106E-02
     10.1548       -0.437525E-03    0.117034E-02
     10.1588       -0.243674E-03    0.123236E-02
     10.1619       -0.906566E-04    0.125722E-02
     10.1627       -0.495624E-04    0.126036E-02
     10.1635       -0.840783E-05    0.126205E-02
     10.1666        0.145687E-03    0.125575E-02
     10.1707        0.342881E-03    0.121755E-02
     10.1737        0.488081E-03    0.116587E-02
     10.1746        0.525537E-03    0.114883E-02
     10.1754        0.562105E-03    0.113024E-02
     10.1785        0.693370E-03    0.104951E-02
     10.1825        0.847846E-03    0.919629E-03
     10.1856        0.951031E-03    0.803235E-03
     10.1864        0.975985E-03    0.769941E-03
     10.1872        0.999518E-03    0.735573E-03
     10.1903        0.107754E-02    0.599770E-03
     10.1944        0.115333E-02    0.408996E-03
     10.1975        0.119032E-02    0.255258E-03
     10.1983        0.119690E-02    0.213511E-03
     10.1991        0.120183E-02    0.171524E-03
     10.2022        0.120822E-02    0.127531E-04
     10.2062        0.118771E-02   -0.194138E-03
     10.2093        0.115018E-02   -0.349365E-03
     10.2101        0.113697E-02   -0.389861E-03
     10.2110        0.112220E-02   -0.429595E-03
     10.2140        0.105570E-02   -0.574016E-03
     10.2181        0.943945E-03   -0.748435E-03
     10.2212        0.840853E-03   -0.868728E-03
     10.2220        0.810986E-03   -0.898477E-03
     10.2228        0.780101E-03   -0.926606E-03
     10.2259        0.656708E-03   -0.102271E-02
     10.2299        0.480344E-03   -0.112370E-02
     10.2330        0.336096E-03   -0.118088E-02
     10.2338        0.296623E-03   -0.119292E-02
     10.2347        0.257058E-03   -0.120319E-02
     10.2378        0.106271E-03   -0.122923E-02
     10.2418       -0.929654E-04   -0.123304E-02
     10.2449       -0.244540E-03   -0.121277E-02
     10.2457       -0.284403E-03   -0.120392E-02
     10.2465       -0.323536E-03   -0.119382E-02
     10.2496       -0.466310E-03   -0.114393E-02
     10.2536       -0.640052E-03   -0.105133E-02
     10.2567       -0.760929E-03   -0.960732E-03
     10.2575       -0.790998E-03   -0.933837E-03
     10.2584       -0.820683E-03   -0.905449E-03
     10.2615       -0.922726E-03   -0.790466E-03
     10.2655       -0.103161E-02   -0.622637E-03
     10.2686       -0.109480E-02   -0.482962E-03
     10.2694       -0.110843E-02   -0.444402E-03
     10.2702       -0.112107E-02   -0.404956E-03
     10.2733       -0.115671E-02   -0.253508E-03
     10.2773       -0.117445E-02   -0.507898E-04
     10.2804       -0.116577E-02    0.105378E-03
     10.2813       -0.116011E-02    0.146745E-03
     10.2821       -0.115291E-02    0.187709E-03
     10.2852       -0.111427E-02    0.339002E-03
     10.2892       -0.103696E-02    0.527599E-03
     10.2923       -0.958314E-03    0.662501E-03
     10.2931       -0.934614E-03    0.696673E-03
     10.2939       -0.909548E-03    0.729463E-03
     10.2970       -0.806753E-03    0.844959E-03
     10.3011       -0.653964E-03    0.975391E-03
     10.3041       -0.524962E-03    0.105786E-02
     10.3050       -0.489096E-03    0.107699E-02
     10.3058       -0.452112E-03    0.109374E-02
     10.3089       -0.309614E-03    0.114556E-02
     10.3129       -0.117748E-03    0.118595E-02
     10.3160        0.308492E-04    0.119545E-02
     10.3168        0.703255E-04    0.119472E-02
     10.3177        0.109958E-03    0.119199E-02
     10.3207        0.256661E-03    0.116968E-02
     10.3248        0.440304E-03    0.111243E-02
     10.3279        0.572225E-03    0.104793E-02
     10.3287        0.605728E-03    0.102778E-02
     10.3295        0.638839E-03    0.100588E-02
     10.3326        0.755523E-03    0.913961E-03
     10.3366        0.887431E-03    0.772801E-03
     10.3397        0.970882E-03    0.650581E-03
     10.3406        0.990254E-03    0.616186E-03
     10.3414        0.100861E-02    0.580735E-03
     10.3445        0.106657E-02    0.442433E-03
     10.3485        0.111505E-02    0.252280E-03
     10.3516        0.113067E-02    0.102101E-03
     10.3524        0.113154E-02    0.617715E-04
     10.3533        0.113093E-02    0.213431E-04
     10.3564        0.111684E-02   -0.129818E-03
     10.3604        0.107073E-02   -0.322665E-03
     10.3635        0.101489E-02   -0.464087E-03
     10.3643        0.997047E-03   -0.500468E-03
     10.3651        0.977851E-03   -0.536109E-03
     10.3682        0.895931E-03   -0.663604E-03
     10.3723        0.767272E-03   -0.812523E-03
     10.3754        0.654044E-03   -0.910980E-03
     10.3762        0.621938E-03   -0.934611E-03
     10.3770        0.589001E-03   -0.956892E-03
     10.3801        0.459825E-03   -0.103009E-02
     10.3841        0.280700E-03   -0.109940E-02
     10.3872        0.138166E-03   -0.113140E-02
     10.3881        0.997386E-04   -0.113666E-02
     10.3889        0.612245E-04   -0.114031E-02
     10.3920       -0.832377E-04   -0.114197E-02
     10.3960       -0.268593E-03   -0.111563E-02
     10.3991       -0.405303E-03   -0.107406E-02
     10.3999       -0.440591E-03   -0.105985E-02
     10.4008       -0.475203E-03   -0.104416E-02
     10.4039       -0.599420E-03   -0.974632E-03
     10.4079       -0.745493E-03   -0.860059E-03
     10.4110       -0.842871E-03   -0.755834E-03
     10.4118       -0.866381E-03   -0.725837E-03
     10.4127       -0.888623E-03   -0.694857E-03
     10.4158       -0.962245E-03   -0.571886E-03
     10.4198       -0.103345E-02   -0.398068E-03
     10.4229       -0.106786E-02   -0.257405E-03
     10.4237       -0.107391E-02   -0.219142E-03
     10.4246       -0.107841E-02   -0.180627E-03
     10.4277       -0.108374E-02   -0.349567E-04
     10.4317       -0.106317E-02    0.154782E-03
     10.4348       -0.102668E-02    0.296910E-03
     10.4356       -0.101393E-02    0.333938E-03
     10.4365       -0.999733E-03    0.370433E-03
     10.4396       -0.936060E-03    0.502707E-03
     10.4436       -0.829636E-03    0.661449E-03
     10.4467       -0.731931E-03    0.769975E-03
     10.4475       -0.703701E-03    0.796645E-03
     10.4484       -0.674502E-03    0.822138E-03
     10.4515       -0.558247E-03    0.908506E-03
     10.4555       -0.393174E-03    0.997362E-03
     10.4586       -0.259094E-03    0.104581E-02
     10.4594       -0.222556E-03    0.105563E-02
     10.4603       -0.185748E-03    0.106394E-02
     10.4634       -0.463238E-04    0.108351E-02
     10.4674        0.135733E-03    0.108123E-02
     10.4705        0.272409E-03    0.105825E-02
     10.4714        0.308059E-03    0.104897E-02
     10.4722        0.343219E-03    0.103822E-02
     10.4753        0.470779E-03    0.986891E-03
     10.4793        0.624141E-03    0.895066E-03
     10.4825        0.729175E-03    0.807180E-03
     10.4833        0.755015E-03    0.781338E-03
     10.4841        0.779735E-03    0.754417E-03
     10.4872        0.863563E-03    0.645793E-03
     10.4913        0.950002E-03    0.488372E-03
     10.4944        0.997288E-03    0.358297E-03
     10.4952        0.100691E-02    0.322539E-03
     10.4960        0.101507E-02    0.286372E-03
     10.4991        0.103447E-02    0.148293E-03
     10.5032        0.103281E-02   -0.345219E-04
     10.5063        0.101093E-02   -0.173666E-03
     10.5071        0.100205E-02   -0.210248E-03
     10.5080        0.991732E-03   -0.246475E-03
     10.5111        0.942367E-03   -0.378979E-03
     10.5151        0.853797E-03   -0.540908E-03
     10.5183        0.768896E-03   -0.653969E-03
     10.5191        0.743919E-03   -0.682146E-03
     10.5199        0.717900E-03   -0.709300E-03
     10.5230        0.612869E-03   -0.802873E-03
     10.5271        0.460598E-03   -0.903259E-03
     10.5302        0.334768E-03   -0.961945E-03
     10.5310        0.300179E-03   -0.974681E-03
     10.5319        0.265200E-03   -0.985995E-03
     10.5350        0.131678E-03   -0.101738E-02
     10.5391       -0.450013E-04   -0.103146E-02
     10.5422       -0.179357E-03   -0.102148E-02
     10.5430       -0.214657E-03   -0.101571E-02
     10.5438       -0.249604E-03   -0.100849E-02
     10.5470       -0.377318E-03   -0.970395E-03
     10.5510       -0.533079E-03   -0.895538E-03
     10.5541       -0.641536E-03   -0.820183E-03
     10.5550       -0.668511E-03   -0.797582E-03
     10.5558       -0.694485E-03   -0.773861E-03
     10.5589       -0.783744E-03   -0.676757E-03
     10.5630       -0.878840E-03   -0.533036E-03
     10.5661       -0.933780E-03   -0.412272E-03
     10.5670       -0.945573E-03   -0.378800E-03
     10.5678       -0.955979E-03   -0.344827E-03
     10.5709       -0.984163E-03   -0.214198E-03
     10.5750       -0.994622E-03   -0.391746E-04
     10.5781       -0.982327E-03    0.955338E-04
     10.5789       -0.976018E-03    0.131169E-03
     10.5798       -0.968299E-03    0.166566E-03
     10.5829       -0.928623E-03    0.296812E-03
     10.5870       -0.852409E-03    0.457797E-03
     10.5901       -0.776577E-03    0.571620E-03
     10.5909       -0.753938E-03    0.600216E-03
     10.5918       -0.730228E-03    0.627901E-03
     10.5949       -0.633476E-03    0.724190E-03
     10.5990       -0.490985E-03    0.829729E-03
     10.6021       -0.371755E-03    0.893466E-03
     10.6029       -0.338781E-03    0.907698E-03
     10.6038       -0.305350E-03    0.920592E-03
     10.6069       -0.177059E-03    0.958350E-03
     10.6110       -0.580797E-05    0.981657E-03
     10.6141        0.125486E-03    0.979273E-03
     10.6150        0.160136E-03    0.975590E-03
     10.6158        0.194516E-03    0.970492E-03
     10.6189        0.320703E-03    0.940486E-03
     10.6230        0.475855E-03    0.876297E-03
     10.6262        0.584852E-03    0.809045E-03
     10.6270        0.612116E-03    0.788576E-03
     10.6278        0.638457E-03    0.766984E-03
     10.6310        0.729572E-03    0.677671E-03
     10.6351        0.828131E-03    0.543549E-03
     10.6382        0.886422E-03    0.429594E-03
     10.6390        0.899200E-03    0.397843E-03
     10.6399        0.910651E-03    0.365549E-03
     10.6430        0.943018E-03    0.240825E-03
     10.6471        0.959458E-03    0.725131E-04
     10.6502        0.952031E-03   -0.578629E-04
     10.6511        0.947050E-03   -0.924693E-04
     10.6519        0.940687E-03   -0.126901E-03
     10.6551        0.906136E-03   -0.253997E-03
     10.6592        0.836604E-03   -0.411985E-03
     10.6623        0.765789E-03   -0.524349E-03
     10.6631        0.744463E-03   -0.552679E-03
     10.6640        0.722064E-03   -0.580169E-03
     10.6671        0.630084E-03   -0.676147E-03
     10.6712        0.493417E-03   -0.782242E-03
     10.6744        0.378282E-03   -0.847083E-03
     10.6752        0.346340E-03   -0.861704E-03
     10.6761        0.313917E-03   -0.875049E-03
     10.6792        0.189160E-03   -0.914790E-03
     10.6833        0.219249E-04   -0.941327E-03
     10.6865       -0.106757E-03   -0.941832E-03
     10.6873       -0.140781E-03   -0.938974E-03
     10.6881       -0.174572E-03   -0.934742E-03
     10.6913       -0.298803E-03   -0.908126E-03
     10.6954       -0.451982E-03   -0.848640E-03
     10.6986       -0.559885E-03   -0.785135E-03
     10.6994       -0.586916E-03   -0.765680E-03
     10.7002       -0.613065E-03   -0.745121E-03
     10.7034       -0.703653E-03   -0.659689E-03
     10.7075       -0.801948E-03   -0.530609E-03
     10.7107       -0.860320E-03   -0.420453E-03
     10.7115       -0.873158E-03   -0.389701E-03
     10.7124       -0.884703E-03   -0.358406E-03
     10.7155       -0.917534E-03   -0.237342E-03
     10.7196       -0.934811E-03   -0.736017E-04
     10.7228       -0.928164E-03    0.534505E-04
     10.7236       -0.923408E-03    0.871994E-04
     10.7245       -0.917298E-03    0.120791E-03
     10.7276       -0.883732E-03    0.244852E-03
     10.7318       -0.815573E-03    0.399157E-03
     10.7349       -0.745861E-03    0.508915E-03
     10.7358       -0.724836E-03    0.536583E-03
     10.7366       -0.702755E-03    0.563440E-03
     10.7398       -0.611981E-03    0.657157E-03
     10.7439       -0.476932E-03    0.760587E-03
     10.7471       -0.363078E-03    0.823600E-03
     10.7479       -0.331485E-03    0.837768E-03
     10.7488       -0.299421E-03    0.850693E-03
     10.7520       -0.176036E-03    0.888973E-03
     10.7561       -0.106852E-04    0.913890E-03
     10.7593        0.116465E-03    0.913380E-03
     10.7601        0.150065E-03    0.910287E-03
     10.7610        0.183429E-03    0.905857E-03
     10.7641        0.305996E-03    0.878619E-03
     10.7683        0.456834E-03    0.818650E-03
     10.7715        0.562803E-03    0.755040E-03
     10.7723        0.589297E-03    0.735601E-03
     10.7731        0.614913E-03    0.715092E-03
     10.7763        0.703413E-03    0.630002E-03
     10.7805        0.798795E-03    0.501772E-03
     10.7837        0.854798E-03    0.392591E-03
     10.7845        0.866985E-03    0.362152E-03
     10.7853        0.877893E-03    0.331199E-03
     10.7885        0.908268E-03    0.211606E-03
     10.7927        0.922241E-03    0.502485E-04
     10.7959        0.913021E-03   -0.746144E-04
     10.7967        0.907580E-03   -0.107724E-03
     10.7976        0.900805E-03   -0.140656E-03
     10.8008        0.864761E-03   -0.262049E-03
     10.8049        0.793483E-03   -0.412420E-03
     10.8081        0.721526E-03   -0.518836E-03
     10.8090        0.699932E-03   -0.545568E-03
     10.8098        0.677314E-03   -0.571481E-03
     10.8130        0.584654E-03   -0.661509E-03
     10.8172        0.447545E-03   -0.759820E-03
     10.8204        0.332482E-03   -0.818728E-03
     10.8212        0.300631E-03   -0.831782E-03
     10.8221        0.268343E-03   -0.843604E-03
     10.8253        0.144377E-03   -0.877703E-03
     10.8294       -0.210689E-04   -0.897149E-03
     10.8326       -0.147740E-03   -0.892512E-03
     10.8335       -0.181125E-03   -0.888340E-03
     10.8343       -0.214239E-03   -0.882862E-03
     10.8375       -0.335539E-03   -0.851804E-03
     10.8417       -0.483931E-03   -0.787224E-03
     10.8449       -0.587417E-03   -0.720454E-03
     10.8458       -0.613159E-03   -0.700240E-03
     10.8466       -0.637998E-03   -0.679004E-03
     10.8498       -0.723266E-03   -0.591466E-03
     10.8540       -0.813729E-03   -0.460800E-03
     10.8572       -0.865477E-03   -0.350406E-03
     10.8581       -0.876467E-03   -0.319749E-03
     10.8589       -0.886170E-03   -0.288634E-03
     10.8621       -0.911823E-03   -0.168842E-03
     10.8663       -0.919267E-03   -0.824297E-05
     10.8695       -0.904864E-03    0.115234E-03
     10.8704       -0.898028E-03    0.147853E-03
     10.8712       -0.889875E-03    0.180242E-03
     10.8745       -0.848664E-03    0.299155E-03
     10.8787       -0.770792E-03    0.445262E-03
     10.8819       -0.694019E-03    0.547658E-03
     10.8827       -0.671193E-03    0.573212E-03
     10.8836       -0.647382E-03    0.597915E-03
     10.8868       -0.550492E-03    0.683048E-03
     10.8910       -0.408571E-03    0.774227E-03
     10.8942       -0.290471E-03    0.827198E-03
     10.8951       -0.257921E-03    0.838613E-03
     10.8960       -0.224990E-03    0.848794E-03
     10.8992       -0.990574E-04    0.876586E-03
     10.9034        0.678187E-04    0.887605E-03
     10.9066        0.194659E-03    0.876499E-03
     10.9075        0.227945E-03    0.870620E-03
     10.9083        0.260900E-03    0.863466E-03
     10.9116        0.381066E-03    0.826251E-03
     10.9158        0.526700E-03    0.754116E-03
     10.9190        0.627112E-03    0.682069E-03
     10.9199        0.651896E-03    0.660543E-03
     10.9207        0.675731E-03    0.638054E-03
     10.9240        0.756749E-03    0.546224E-03
     10.9282        0.840612E-03    0.411056E-03
     10.9314        0.886592E-03    0.298156E-03
     10.9323        0.895953E-03    0.266984E-03
     10.9332        0.904008E-03    0.235428E-03
     10.9364        0.923204E-03    0.114577E-03
     10.9406        0.921729E-03   -0.459471E-04
     10.9439        0.900264E-03   -0.168225E-03
     10.9447        0.891533E-03   -0.200351E-03
     10.9456        0.881503E-03   -0.232178E-03
     10.9489        0.833279E-03   -0.348359E-03
     10.9531        0.746515E-03   -0.489478E-03
     10.9563        0.663294E-03   -0.587029E-03
     10.9572        0.638825E-03   -0.611149E-03
     10.9581        0.613424E-03   -0.634372E-03
     10.9613        0.510915E-03   -0.713481E-03
     10.9656        0.362658E-03   -0.795835E-03
     10.9688        0.240595E-03   -0.841449E-03
     10.9697        0.207137E-03   -0.850835E-03
     10.9706        0.173372E-03   -0.858979E-03
     10.9738        0.448967E-04   -0.878961E-03
     10.9781       -0.123814E-03   -0.879598E-03
     10.9813       -0.250873E-03   -0.860575E-03
     10.9822       -0.284035E-03   -0.852616E-03
     10.9831       -0.316793E-03   -0.843418E-03
     10.9863       -0.435548E-03   -0.798739E-03
     10.9906       -0.577784E-03   -0.717549E-03
     10.9939       -0.674446E-03   -0.639260E-03
     10.9947       -0.698067E-03   -0.616196E-03
     10.9956       -0.720686E-03   -0.592241E-03
     10.9989       -0.796585E-03   -0.495443E-03
     11.0031       -0.872593E-03   -0.355193E-03
     11.0064       -0.911787E-03   -0.239579E-03
     11.0073       -0.919244E-03   -0.207871E-03
     11.0082       -0.925378E-03   -0.175867E-03
     11.0114       -0.937093E-03   -0.540554E-04
     11.0157       -0.925415E-03    0.105991E-03
     11.0190       -0.895982E-03    0.226573E-03
     11.0199       -0.885130E-03    0.258052E-03
     11.0207       -0.873002E-03    0.289152E-03
     11.0240       -0.817005E-03    0.401907E-03
     11.0283       -0.720539E-03    0.536999E-03
     11.0316       -0.630401E-03    0.628844E-03
     11.0325       -0.604188E-03    0.651297E-03
     11.0333       -0.577102E-03    0.672806E-03
     11.0366       -0.468716E-03    0.745017E-03
     11.0409       -0.313985E-03    0.817452E-03
     11.0442       -0.187997E-03    0.854947E-03
     11.0451       -0.153660E-03    0.862117E-03
     11.0460       -0.119095E-03    0.868044E-03
     11.0493        0.117256E-04    0.879615E-03
     11.0536        0.181900E-03    0.869276E-03
     11.0569        0.308833E-03    0.842053E-03
     11.0577        0.341775E-03    0.831966E-03
     11.0586        0.374239E-03    0.820688E-03
     11.0619        0.491218E-03    0.768506E-03
     11.0662        0.629609E-03    0.678447E-03
     11.0695        0.722234E-03    0.594236E-03
     11.0704        0.744630E-03    0.569743E-03
     11.0713        0.765974E-03    0.544440E-03
     11.0746        0.836600E-03    0.443196E-03
     11.0789        0.904715E-03    0.298701E-03
     11.0822        0.937242E-03    0.181102E-03
     11.0831        0.942851E-03    0.149061E-03
     11.0840        0.947128E-03    0.116814E-03
     11.0873        0.951701E-03   -0.518195E-05
     11.0916        0.930481E-03   -0.163757E-03
     11.0950        0.893749E-03   -0.281940E-03
     11.0959        0.880977E-03   -0.312597E-03
     11.0967        0.866961E-03   -0.342805E-03
     11.1001        0.804055E-03   -0.451590E-03
     11.1044        0.699161E-03   -0.580158E-03
     11.1077        0.603164E-03   -0.666117E-03
     11.1086        0.575498E-03   -0.686888E-03
     11.1095        0.547019E-03   -0.706685E-03
     11.1128        0.433854E-03   -0.772140E-03
     11.1172        0.274047E-03   -0.835184E-03
     11.1205        0.145128E-03   -0.865237E-03
     11.1214        0.110161E-03   -0.870412E-03
     11.1223        0.750328E-04   -0.874361E-03
     11.1256       -0.573395E-04   -0.878557E-03
     11.1300       -0.228219E-03   -0.858924E-03
     11.1333       -0.354707E-03   -0.825012E-03
     11.1342       -0.387390E-03   -0.813230E-03
     11.1351       -0.419542E-03   -0.800312E-03
     11.1384       -0.534864E-03   -0.742367E-03
     11.1428       -0.670052E-03   -0.645847E-03
     11.1461       -0.759533E-03   -0.557604E-03
     11.1470       -0.781003E-03   -0.532187E-03
     11.1479       -0.801402E-03   -0.506033E-03
     11.1513       -0.868217E-03   -0.402168E-03
     11.1557       -0.930898E-03   -0.255627E-03
     11.1590       -0.959055E-03   -0.137510E-03
     11.1599       -0.963488E-03   -0.105487E-03
     11.1608       -0.966603E-03   -0.733234E-04
     11.1642       -0.966833E-03    0.478245E-04
     11.1685       -0.940132E-03    0.204120E-03
     11.1719       -0.899462E-03    0.319762E-03
     11.1728       -0.885694E-03    0.349639E-03
     11.1737       -0.870723E-03    0.379031E-03
     11.1771       -0.804463E-03    0.484449E-03
     11.1815       -0.695815E-03    0.608069E-03
     11.1848       -0.597464E-03    0.689974E-03
     11.1857       -0.569253E-03    0.709648E-03
     11.1866       -0.540274E-03    0.728355E-03
     11.1900       -0.425525E-03    0.789740E-03
     11.1944       -0.264311E-03    0.847692E-03
     11.1978       -0.134770E-03    0.874166E-03
     11.1987       -0.996992E-04    0.878455E-03
     11.1996       -0.644915E-04    0.881563E-03
     11.2030        0.680099E-04    0.882907E-03
     11.2074        0.238779E-03    0.860374E-03
     11.2108        0.365098E-03    0.824945E-03
     11.2117        0.397738E-03    0.812874E-03
     11.2126        0.429859E-03    0.799727E-03
     11.2160        0.545152E-03    0.741340E-03
     11.2204        0.680659E-03    0.645208E-03
     11.2238        0.770806E-03    0.557955E-03
     11.2247        0.792535E-03    0.532899E-03
     11.2256        0.813240E-03    0.507153E-03
     11.2290        0.881549E-03    0.405104E-03
     11.2334        0.947099E-03    0.261448E-03
     11.2368        0.978249E-03    0.145768E-03
     11.2377        0.983609E-03    0.114407E-03
     11.2386        0.987721E-03    0.829133E-04
     11.2421        0.992109E-03   -0.357928E-04
     11.2465        0.971844E-03   -0.189331E-03
     11.2499        0.936886E-03   -0.303435E-03
     11.2508        0.924757E-03   -0.333016E-03
     11.2517        0.911485E-03   -0.362140E-03
     11.2551        0.851733E-03   -0.467093E-03
     11.2596        0.751958E-03   -0.591664E-03
     11.2630        0.660757E-03   -0.675749E-03
     11.2639        0.634509E-03   -0.696248E-03
     11.2648        0.607510E-03   -0.715773E-03
     11.2683        0.499466E-03   -0.781195E-03
     11.2727        0.346003E-03   -0.847010E-03
     11.2762        0.222355E-03   -0.881770E-03
     11.2771        0.188927E-03   -0.888630E-03
     11.2780        0.155259E-03   -0.893999E-03
     11.2814        0.255956E-04   -0.905111E-03
     11.2859       -0.144685E-03   -0.898846E-03
     11.2893       -0.269364E-03   -0.879032E-03
     11.2903       -0.300962E-03   -0.871632E-03
     11.2912       -0.332682E-03   -0.861538E-03
     11.2946       -0.455742E-03   -0.816272E-03
     11.2991       -0.607430E-03   -0.742893E-03
     11.3026       -0.698861E-03   -0.679042E-03
     11.3035       -0.717515E-03   -0.661280E-03
     11.3044       -0.738821E-03   -0.636035E-03
     11.3078       -0.839289E-03   -0.540527E-03
     11.3123       -0.953803E-03   -0.423085E-03
     11.3158       -0.964824E-03   -0.347558E-03
     11.3167       -0.949206E-03   -0.330569E-03
     11.3176       -0.961251E-03   -0.278646E-03
     11.3211       -0.109626E-02   -0.126359E-03
     11.3256       -0.109797E-02   -0.705286E-04
     11.3291       -0.584229E-03   -0.178381E-03
     11.3300       -0.328502E-03   -0.233859E-03
     11.3300       -0.357253E-03    0.647108E-03
     11.3303       -0.250409E-03    0.448865E-03
     11.3314        0.415044E-04   -0.927098E-04
     11.3328        0.163287E-03   -0.318803E-03
     11.3340        0.579567E-04   -0.123941E-03
     11.3343        0.791020E-06   -0.181317E-04
     11.3345        0.190280E-04   -0.515893E-04
     11.3357        0.688052E-04   -0.142780E-03
     11.3371        0.894125E-04   -0.180160E-03
     11.3382        0.712067E-04   -0.146291E-03
     11.3385        0.613755E-04   -0.128116E-03
     11.3388        0.644584E-04   -0.133591E-03
     11.3399        0.728412E-04   -0.148305E-03
     11.3413        0.762073E-04   -0.153654E-03
     11.3425        0.729812E-04   -0.147143E-03
     11.3428        0.712712E-04   -0.143855E-03
     11.3430        0.717737E-04   -0.144583E-03
     11.3442        0.731209E-04   -0.146329E-03
     11.3456        0.735988E-04   -0.146266E-03
     11.3467        0.729835E-04   -0.144423E-03
     11.3470        0.726758E-04   -0.143669E-03
     11.3473        0.727476E-04   -0.143598E-03
     11.3484        0.729302E-04   -0.143167E-03
     11.3498        0.729615E-04   -0.142219E-03
     11.3510        0.728271E-04   -0.141196E-03
     11.3513        0.727680E-04   -0.140880E-03
     11.3515        0.727744E-04   -0.140681E-03
     11.3527        0.727869E-04   -0.139910E-03
     11.3541        0.727768E-04   -0.138850E-03
     11.3552        0.727487E-04   -0.137998E-03
     11.3555        0.727383E-04   -0.137764E-03
     11.3558        0.727393E-04   -0.137552E-03
     11.3569        0.727435E-04   -0.136754E-03
     11.3583        0.727505E-04   -0.135718E-03
     11.3595        0.727570E-04   -0.134927E-03
     11.3598        0.727589E-04   -0.134716E-03
     11.3600        0.727628E-04   -0.134510E-03
     11.3612        0.727794E-04   -0.133741E-03
     11.3626        0.728049E-04   -0.132752E-03
     11.3637        0.728274E-04   -0.132005E-03
     11.3640        0.728338E-04   -0.131807E-03
     11.3643        0.728407E-04   -0.131611E-03
     11.3654        0.728674E-04   -0.130881E-03
     11.3668        0.729047E-04   -0.129943E-03
     11.3680        0.729352E-04   -0.129237E-03
     11.3683        0.729436E-04   -0.129050E-03
     11.3685        0.729521E-04   -0.128865E-03
     11.3697        0.729842E-04   -0.128174E-03
     11.3711        0.730267E-04   -0.127289E-03
     11.3722        0.730599E-04   -0.126623E-03
     11.3725        0.730689E-04   -0.126447E-03
     11.3728        0.730778E-04   -0.126272E-03
     11.3739        0.731109E-04   -0.125621E-03
     11.3753        0.731533E-04   -0.124786E-03
     11.3765        0.731854E-04   -0.124159E-03
     11.3768        0.731939E-04   -0.123993E-03
     11.3770        0.732022E-04   -0.123828E-03
     11.3782        0.732329E-04   -0.123216E-03
     11.3796        0.732711E-04   -0.122431E-03
     11.3807        0.732991E-04   -0.121840E-03
     11.3810        0.733064E-04   -0.121685E-03
     11.3813        0.733135E-04   -0.121530E-03
     11.3824        0.733392E-04   -0.120954E-03
     11.3838        0.733701E-04   -0.120216E-03
     11.3850        0.733918E-04   -0.119661E-03
     11.3853        0.733973E-04   -0.119515E-03
     11.3855        0.734027E-04   -0.119369E-03
     11.3867        0.734215E-04   -0.118828E-03
     11.3881        0.734428E-04   -0.118135E-03
     11.3892        0.734568E-04   -0.117614E-03
     11.3895        0.734601E-04   -0.117477E-03
     11.3898        0.734633E-04   -0.117340E-03
     11.3909        0.734739E-04   -0.116832E-03
     11.3923        0.734841E-04   -0.116181E-03
     11.3935        0.734892E-04   -0.115692E-03
     11.3938        0.734902E-04   -0.115563E-03
     11.3940        0.734910E-04   -0.115435E-03
     11.3952        0.734924E-04   -0.114957E-03
     11.3966        0.734905E-04   -0.114346E-03
     11.3977        0.734862E-04   -0.113886E-03
     11.3980        0.734846E-04   -0.113765E-03
     11.3983        0.734828E-04   -0.113645E-03
     11.3994        0.734746E-04   -0.113196E-03
     11.4008        0.734601E-04   -0.112622E-03
     11.4020        0.734460E-04   -0.112190E-03
     11.4023        0.734418E-04   -0.112076E-03
     11.4025        0.734374E-04   -0.111962E-03
     11.4037        0.734194E-04   -0.111541E-03
     11.4051        0.733920E-04   -0.111000E-03
     11.4062        0.733680E-04   -0.110594E-03
     11.4065        0.733612E-04   -0.110487E-03
     11.4068        0.733542E-04   -0.110380E-03
     11.4079        0.733264E-04   -0.109983E-03
     11.4093        0.732863E-04   -0.109474E-03
     11.4105        0.732526E-04   -0.109091E-03
     11.4108        0.732432E-04   -0.108990E-03
     11.4110        0.732336E-04   -0.108890E-03
     11.4122        0.731962E-04   -0.108516E-03
     11.4136        0.731436E-04   -0.108036E-03
     11.4147        0.731005E-04   -0.107675E-03
     11.4150        0.730886E-04   -0.107580E-03
     11.4153        0.730766E-04   -0.107485E-03
     11.4164        0.730299E-04   -0.107132E-03
     11.4178        0.729654E-04   -0.106679E-03
     11.4190        0.729132E-04   -0.106338E-03
     11.4193        0.728990E-04   -0.106248E-03
     11.4195        0.728845E-04   -0.106158E-03
     11.4207        0.728290E-04   -0.105824E-03
     11.4221        0.727531E-04   -0.105396E-03
     11.4232        0.726924E-04   -0.105073E-03
     11.4235        0.726759E-04   -0.104988E-03
     11.4238        0.726592E-04   -0.104903E-03
     11.4249        0.725953E-04   -0.104587E-03
     11.4263        0.725088E-04   -0.104181E-03
     11.4275        0.724401E-04   -0.103875E-03
     11.4278        0.724215E-04   -0.103794E-03
     11.4280        0.724027E-04   -0.103713E-03
     11.4292        0.723310E-04   -0.103413E-03
     11.4306        0.722346E-04   -0.103028E-03
     11.4317        0.721584E-04   -0.102737E-03
     11.4320        0.721378E-04   -0.102660E-03
     11.4323        0.721171E-04   -0.102583E-03
     11.4334        0.720382E-04   -0.102298E-03
     11.4348        0.719326E-04   -0.101932E-03
     11.4360        0.718497E-04   -0.101655E-03
     11.4363        0.718273E-04   -0.101581E-03
     11.4365        0.718047E-04   -0.101509E-03
     11.4377        0.717192E-04   -0.101237E-03
     11.4391        0.716053E-04   -0.100887E-03
     11.4402        0.715160E-04   -0.100623E-03
     11.4405        0.714920E-04   -0.100553E-03
     11.4408        0.714679E-04   -0.100484E-03
     11.4419        0.713764E-04   -0.100224E-03
     11.4433        0.712548E-04   -0.998901E-04
     11.4445        0.711599E-04   -0.996375E-04
     11.4448        0.711344E-04   -0.995707E-04
     11.4450        0.711088E-04   -0.995041E-04
     11.4462        0.710118E-04   -0.992558E-04
     11.4476        0.708834E-04   -0.989360E-04
     11.4487        0.707835E-04   -0.986941E-04
     11.4490        0.707566E-04   -0.986301E-04
     11.4493        0.707297E-04   -0.985662E-04
     11.4504        0.706279E-04   -0.983282E-04
     11.4518        0.704934E-04   -0.980214E-04
     11.4530        0.703890E-04   -0.977891E-04
     11.4533        0.703609E-04   -0.977276E-04
     11.4535        0.703328E-04   -0.976663E-04
     11.4547        0.702268E-04   -0.974376E-04
     11.4561        0.700869E-04   -0.971426E-04
     11.4572        0.699785E-04   -0.969192E-04
     11.4575        0.699494E-04   -0.968600E-04
     11.4578        0.699203E-04   -0.968010E-04
     11.4589        0.698105E-04   -0.965809E-04
     11.4603        0.696659E-04   -0.962968E-04
     11.4615        0.695540E-04   -0.960814E-04
     11.4618        0.695241E-04   -0.960244E-04
     11.4620        0.694941E-04   -0.959675E-04
     11.4632        0.693810E-04   -0.957551E-04
     11.4646        0.692323E-04   -0.954810E-04
     11.4657        0.691175E-04   -0.952730E-04
     11.4660        0.690868E-04   -0.952180E-04
     11.4663        0.690561E-04   -0.951630E-04
     11.4674        0.689402E-04   -0.949579E-04
     11.4688        0.687881E-04   -0.946928E-04
     11.4700        0.686708E-04   -0.944917E-04
     11.4703        0.686395E-04   -0.944384E-04
     11.4705        0.686081E-04   -0.943852E-04
     11.4717        0.684899E-04   -0.941867E-04
     11.4731        0.683350E-04   -0.939301E-04
     11.4742        0.682156E-04   -0.937352E-04
     11.4745        0.681837E-04   -0.936836E-04
     11.4748        0.681518E-04   -0.936321E-04
     11.4759        0.680317E-04   -0.934396E-04
     11.4773        0.678745E-04   -0.931908E-04
     11.4785        0.677534E-04   -0.930017E-04
     11.4788        0.677211E-04   -0.929516E-04
     11.4790        0.676888E-04   -0.929016E-04
     11.4802        0.675672E-04   -0.927148E-04
     11.4816        0.674081E-04   -0.924731E-04
     11.4827        0.672858E-04   -0.922895E-04
     11.4830        0.672532E-04   -0.922408E-04
     11.4833        0.672205E-04   -0.921922E-04
     11.4844        0.670978E-04   -0.920106E-04
     11.4858        0.669374E-04   -0.917756E-04
     11.4870        0.668141E-04   -0.915970E-04
     11.4873        0.667813E-04   -0.915497E-04
     11.4875        0.667484E-04   -0.915024E-04
     11.4887        0.666249E-04   -0.913257E-04
     11.4901        0.664635E-04   -0.910969E-04
     11.4912        0.663396E-04   -0.909230E-04
     11.4915        0.663066E-04   -0.908769E-04
     11.4918        0.662736E-04   -0.908308E-04
     11.4929        0.661496E-04   -0.906587E-04
     11.4943        0.659877E-04   -0.904358E-04
     11.4955        0.658635E-04   -0.902662E-04
     11.4958        0.658304E-04   -0.902213E-04
     11.4960        0.657973E-04   -0.901764E-04
     11.4972        0.656731E-04   -0.900085E-04
     11.4986        0.655110E-04   -0.897911E-04
     11.4997        0.653868E-04   -0.896258E-04
     11.5000        0.653537E-04   -0.895819E-04
     11.5000        0.653537E-04   -0.895819E-04
     11.5003        0.653148E-04   -0.895303E-04
     11.5017        0.651687E-04   -0.893378E-04
     11.5033        0.649783E-04   -0.890887E-04
     11.5047        0.648325E-04   -0.888994E-04
     11.5050        0.647936E-04   -0.888492E-04
     11.5053        0.647548E-04   -0.887991E-04
     11.5067        0.646092E-04   -0.886118E-04
     11.5083        0.644195E-04   -0.883695E-04
     11.5097        0.642743E-04   -0.881853E-04
     11.5100        0.642357E-04   -0.881365E-04
     11.5103        0.641971E-04   -0.880877E-04
     11.5117        0.640522E-04   -0.879055E-04
     11.5133        0.638637E-04   -0.876696E-04
     11.5147        0.637195E-04   -0.874903E-04
     11.5150        0.636812E-04   -0.874427E-04
     11.5153        0.636428E-04   -0.873952E-04
     11.5167        0.634991E-04   -0.872177E-04
     11.5183        0.633122E-04   -0.869880E-04
     11.5197        0.631693E-04   -0.868133E-04
     11.5200        0.631313E-04   -0.867669E-04
     11.5203        0.630933E-04   -0.867207E-04
     11.5217        0.629510E-04   -0.865478E-04
     11.5233        0.627659E-04   -0.863239E-04
     11.5247        0.626246E-04   -0.861537E-04
     11.5250        0.625870E-04   -0.861085E-04
     11.5253        0.625494E-04   -0.860634E-04
     11.5267        0.624088E-04   -0.858949E-04
     11.5283        0.622260E-04   -0.856767E-04
     11.5297        0.620864E-04   -0.855107E-04
     11.5300        0.620493E-04   -0.854667E-04
     11.5303        0.620122E-04   -0.854228E-04
     11.5317        0.618734E-04   -0.852585E-04
     11.5333        0.616932E-04   -0.850458E-04
     11.5347        0.615556E-04   -0.848840E-04
     11.5350        0.615190E-04   -0.848411E-04
     11.5353        0.614825E-04   -0.847982E-04
     11.5367        0.613457E-04   -0.846381E-04
     11.5383        0.611682E-04   -0.844308E-04
     11.5397        0.610328E-04   -0.842731E-04
     11.5400        0.609968E-04   -0.842312E-04
     11.5403        0.609609E-04   -0.841894E-04
     11.5417        0.608264E-04   -0.840333E-04
     11.5433        0.606518E-04   -0.838312E-04
     11.5447        0.605187E-04   -0.836775E-04
     11.5450        0.604834E-04   -0.836367E-04
     11.5453        0.604481E-04   -0.835960E-04
     11.5467        0.603159E-04   -0.834439E-04
     11.5483        0.601445E-04   -0.832469E-04
     11.5497        0.600139E-04   -0.830971E-04
     11.5500        0.599792E-04   -0.830573E-04
     11.5503        0.599446E-04   -0.830176E-04
     11.5517        0.598150E-04   -0.828694E-04
     11.5533        0.596469E-04   -0.826774E-04
     11.5547        0.595189E-04   -0.825315E-04
     11.5550        0.594849E-04   -0.824928E-04
     11.5553        0.594509E-04   -0.824541E-04
     11.5567        0.593240E-04   -0.823097E-04
     11.5583        0.591594E-04   -0.821228E-04
     11.5597        0.590341E-04   -0.819806E-04
     11.5600        0.590008E-04   -0.819429E-04
     11.5603        0.589676E-04   -0.819053E-04
     11.5617        0.588433E-04   -0.817646E-04
     11.5633        0.586823E-04   -0.815826E-04
     11.5647        0.585598E-04   -0.814442E-04
     11.5650        0.585272E-04   -0.814075E-04
     11.5653        0.584948E-04   -0.813709E-04
     11.5667        0.583734E-04   -0.812340E-04
     11.5683        0.582161E-04   -0.810569E-04
     11.5697        0.580964E-04   -0.809223E-04
     11.5700        0.580646E-04   -0.808866E-04
     11.5703        0.580329E-04   -0.808509E-04
     11.5717        0.579144E-04   -0.807178E-04
     11.5733        0.577609E-04   -0.805455E-04
     11.5747        0.576441E-04   -0.804146E-04
     11.5750        0.576132E-04   -0.803799E-04
     11.5753        0.575822E-04   -0.803452E-04
     11.5767        0.574667E-04   -0.802158E-04
     11.5783        0.573170E-04   -0.800483E-04
     11.5797        0.572033E-04   -0.799211E-04
     11.5800        0.571731E-04   -0.798874E-04
     11.5803        0.571430E-04   -0.798537E-04
     11.5817        0.570304E-04   -0.797279E-04
     11.5833        0.568847E-04   -0.795653E-04
     11.5847        0.567740E-04   -0.794418E-04
     11.5850        0.567446E-04   -0.794090E-04
     11.5853        0.567153E-04   -0.793763E-04
     11.5867        0.566058E-04   -0.792542E-04
     11.5883        0.564641E-04   -0.790964E-04
     11.5897        0.563564E-04   -0.789765E-04
     11.5900        0.563279E-04   -0.789447E-04
     11.5903        0.562994E-04   -0.789130E-04
     11.5917        0.561929E-04   -0.787946E-04
     11.5933        0.560553E-04   -0.786415E-04
     11.5947        0.559507E-04   -0.785252E-04
     11.5950        0.559230E-04   -0.784944E-04
     11.5953        0.558953E-04   -0.784637E-04
     11.5967        0.557920E-04   -0.783489E-04
     11.5983        0.556584E-04   -0.782006E-04
     11.5997        0.555569E-04   -0.780880E-04
     11.6000        0.555300E-04   -0.780581E-04
     11.6003        0.555032E-04   -0.780283E-04
     11.6017        0.554030E-04   -0.779172E-04
     11.6033        0.552735E-04   -0.777736E-04
     11.6047        0.551752E-04   -0.776646E-04
     11.6050        0.551492E-04   -0.776358E-04
     11.6053        0.551232E-04   -0.776070E-04
     11.6067        0.550261E-04   -0.774994E-04
     11.6083        0.549007E-04   -0.773606E-04
     11.6097        0.548056E-04   -0.772552E-04
     11.6100        0.547804E-04   -0.772273E-04
     11.6103        0.547552E-04   -0.771995E-04
     11.6117        0.546613E-04   -0.770956E-04
     11.6133        0.545400E-04   -0.769614E-04
     11.6147        0.544480E-04   -0.768597E-04
     11.6150        0.544237E-04   -0.768328E-04
     11.6153        0.543993E-04   -0.768059E-04
     11.6167        0.543086E-04   -0.767056E-04
     11.6183        0.541915E-04   -0.765762E-04
     11.6197        0.541026E-04   -0.764781E-04
     11.6200        0.540791E-04   -0.764521E-04
     11.6203        0.540556E-04   -0.764262E-04
     11.6217        0.539680E-04   -0.763295E-04
     11.6233        0.538550E-04   -0.762047E-04
     11.6247        0.537693E-04   -0.761102E-04
     11.6250        0.537466E-04   -0.760852E-04
     11.6253        0.537240E-04   -0.760602E-04
     11.6267        0.536396E-04   -0.759672E-04
     11.6283        0.535307E-04   -0.758471E-04
     11.6297        0.534482E-04   -0.757562E-04
     11.6300        0.534263E-04   -0.757321E-04
     11.6303        0.534045E-04   -0.757081E-04
     11.6317        0.533232E-04   -0.756187E-04
     11.6333        0.532184E-04   -0.755033E-04
     11.6347        0.531390E-04   -0.754160E-04
     11.6350        0.531180E-04   -0.753929E-04
     11.6353        0.530971E-04   -0.753698E-04
     11.6367        0.530189E-04   -0.752839E-04
     11.6383        0.529182E-04   -0.751732E-04
     11.6397        0.528420E-04   -0.750895E-04
     11.6400        0.528218E-04   -0.750673E-04
     11.6403        0.528017E-04   -0.750453E-04
     11.6417        0.527266E-04   -0.749629E-04
     11.6433        0.526300E-04   -0.748569E-04
     11.6447        0.525568E-04   -0.747768E-04
     11.6450        0.525375E-04   -0.747556E-04
     11.6453        0.525182E-04   -0.747344E-04
     11.6467        0.524463E-04   -0.746557E-04
     11.6483        0.523537E-04   -0.745544E-04
     11.6497        0.522836E-04   -0.744778E-04
     11.6500        0.522651E-04   -0.744575E-04
     11.6503        0.522466E-04   -0.744373E-04
     11.6517        0.521778E-04   -0.743622E-04
     11.6533        0.520892E-04   -0.742655E-04
     11.6547        0.520222E-04   -0.741925E-04
     11.6550        0.520045E-04   -0.741732E-04
     11.6553        0.519868E-04   -0.741539E-04
     11.6567        0.519210E-04   -0.740823E-04
     11.6583        0.518364E-04   -0.739903E-04
     11.6597        0.517725E-04   -0.739209E-04
     11.6600        0.517556E-04   -0.739025E-04
     11.6603        0.517387E-04   -0.738842E-04
     11.6617        0.516760E-04   -0.738162E-04
     11.6633        0.515953E-04   -0.737288E-04
     11.6647        0.515344E-04   -0.736630E-04
     11.6650        0.515183E-04   -0.736456E-04
     11.6653        0.515023E-04   -0.736282E-04
     11.6667        0.514425E-04   -0.735638E-04
     11.6683        0.513658E-04   -0.734811E-04
     11.6697        0.513078E-04   -0.734187E-04
     11.6700        0.512925E-04   -0.734023E-04
     11.6703        0.512773E-04   -0.733859E-04
     11.6717        0.512205E-04   -0.733250E-04
     11.6733        0.511476E-04   -0.732469E-04
     11.6747        0.510926E-04   -0.731882E-04
     11.6750        0.510781E-04   -0.731727E-04
     11.6753        0.510636E-04   -0.731573E-04
     11.6767        0.510098E-04   -0.730999E-04
     11.6783        0.509407E-04   -0.730265E-04
     11.6797        0.508886E-04   -0.729714E-04
     11.6800        0.508748E-04   -0.729568E-04
     11.6803        0.508611E-04   -0.729423E-04
     11.6817        0.508102E-04   -0.728886E-04
     11.6833        0.507449E-04   -0.728198E-04
     11.6847        0.506956E-04   -0.727682E-04
     11.6850        0.506827E-04   -0.727546E-04
     11.6853        0.506697E-04   -0.727411E-04
     11.6867        0.506216E-04   -0.726909E-04
     11.6883        0.505600E-04   -0.726269E-04
     11.6897        0.505136E-04   -0.725788E-04
     11.6900        0.505014E-04   -0.725662E-04
     11.6903        0.504892E-04   -0.725536E-04
     11.6917        0.504439E-04   -0.725070E-04
     11.6933        0.503859E-04   -0.724477E-04
     11.6947        0.503423E-04   -0.724032E-04
     11.6950        0.503308E-04   -0.723916E-04
     11.6953        0.503193E-04   -0.723799E-04
     11.6967        0.502768E-04   -0.723369E-04
     11.6983        0.502223E-04   -0.722823E-04
     11.6997        0.501814E-04   -0.722414E-04
     11.7000        0.501707E-04   -0.722307E-04
